#   2H + 116Sn elastic scattering Elab=183 Mev
# --------- Optical Potential ---------  
#     r(fm)       V(MeV)       W(MeV)
       0.00       -39.0767       -17.0186
       0.01       -39.0767       -17.0186
       0.02       -39.0766       -17.0186
       0.03       -39.0766       -17.0186
       0.04       -39.0765       -17.0186
       0.05       -39.0765       -17.0186
       0.06       -39.0765       -17.0185
       0.07       -39.0765       -17.0185
       0.08       -39.0765       -17.0185
       0.09       -39.0766       -17.0185
       0.10       -39.0766       -17.0185
       0.11       -39.0767       -17.0185
       0.12       -39.0767       -17.0184
       0.13       -39.0768       -17.0184
       0.14       -39.0769       -17.0184
       0.15       -39.0770       -17.0184
       0.16       -39.0772       -17.0184
       0.17       -39.0773       -17.0183
       0.18       -39.0774       -17.0183
       0.19       -39.0776       -17.0183
       0.20       -39.0778       -17.0183
       0.21       -39.0780       -17.0183
       0.22       -39.0782       -17.0182
       0.23       -39.0784       -17.0182
       0.24       -39.0786       -17.0182
       0.25       -39.0788       -17.0182
       0.26       -39.0791       -17.0182
       0.27       -39.0794       -17.0181
       0.28       -39.0796       -17.0181
       0.29       -39.0799       -17.0181
       0.30       -39.0802       -17.0181
       0.31       -39.0806       -17.0180
       0.32       -39.0809       -17.0180
       0.33       -39.0812       -17.0180
       0.34       -39.0816       -17.0180
       0.35       -39.0819       -17.0180
       0.36       -39.0823       -17.0179
       0.37       -39.0827       -17.0179
       0.38       -39.0831       -17.0179
       0.39       -39.0835       -17.0179
       0.40       -39.0840       -17.0178
       0.41       -39.0844       -17.0178
       0.42       -39.0849       -17.0178
       0.43       -39.0853       -17.0178
       0.44       -39.0858       -17.0177
       0.45       -39.0863       -17.0177
       0.46       -39.0868       -17.0177
       0.47       -39.0873       -17.0176
       0.48       -39.0879       -17.0176
       0.49       -39.0884       -17.0176
       0.50       -39.0890       -17.0176
       0.51       -39.0895       -17.0175
       0.52       -39.0901       -17.0175
       0.53       -39.0907       -17.0175
       0.54       -39.0913       -17.0175
       0.55       -39.0919       -17.0174
       0.56       -39.0926       -17.0174
       0.57       -39.0932       -17.0174
       0.58       -39.0939       -17.0173
       0.59       -39.0945       -17.0173
       0.60       -39.0952       -17.0173
       0.61       -39.0959       -17.0172
       0.62       -39.0966       -17.0172
       0.63       -39.0973       -17.0172
       0.64       -39.0980       -17.0171
       0.65       -39.0988       -17.0171
       0.66       -39.0995       -17.0171
       0.67       -39.1003       -17.0170
       0.68       -39.1010       -17.0170
       0.69       -39.1018       -17.0170
       0.70       -39.1026       -17.0169
       0.71       -39.1034       -17.0169
       0.72       -39.1043       -17.0168
       0.73       -39.1051       -17.0168
       0.74       -39.1059       -17.0168
       0.75       -39.1068       -17.0167
       0.76       -39.1076       -17.0167
       0.77       -39.1085       -17.0167
       0.78       -39.1094       -17.0166
       0.79       -39.1103       -17.0166
       0.80       -39.1112       -17.0165
       0.81       -39.1122       -17.0165
       0.82       -39.1131       -17.0165
       0.83       -39.1140       -17.0164
       0.84       -39.1150       -17.0164
       0.85       -39.1160       -17.0163
       0.86       -39.1170       -17.0163
       0.87       -39.1180       -17.0163
       0.88       -39.1190       -17.0162
       0.89       -39.1200       -17.0162
       0.90       -39.1210       -17.0161
       0.91       -39.1220       -17.0161
       0.92       -39.1231       -17.0160
       0.93       -39.1242       -17.0160
       0.94       -39.1252       -17.0159
       0.95       -39.1263       -17.0159
       0.96       -39.1274       -17.0158
       0.97       -39.1285       -17.0158
       0.98       -39.1296       -17.0157
       0.99       -39.1307       -17.0157
       1.00       -39.1319       -17.0156
       1.01       -39.1330       -17.0156
       1.02       -39.1342       -17.0155
       1.03       -39.1354       -17.0155
       1.04       -39.1365       -17.0154
       1.05       -39.1377       -17.0154
       1.06       -39.1389       -17.0153
       1.07       -39.1401       -17.0153
       1.08       -39.1414       -17.0152
       1.09       -39.1426       -17.0152
       1.10       -39.1438       -17.0151
       1.11       -39.1451       -17.0150
       1.12       -39.1464       -17.0150
       1.13       -39.1476       -17.0149
       1.14       -39.1489       -17.0149
       1.15       -39.1502       -17.0148
       1.16       -39.1515       -17.0147
       1.17       -39.1528       -17.0147
       1.18       -39.1541       -17.0146
       1.19       -39.1555       -17.0146
       1.20       -39.1568       -17.0145
       1.21       -39.1582       -17.0144
       1.22       -39.1595       -17.0144
       1.23       -39.1609       -17.0143
       1.24       -39.1623       -17.0142
       1.25       -39.1637       -17.0142
       1.26       -39.1651       -17.0141
       1.27       -39.1665       -17.0140
       1.28       -39.1679       -17.0140
       1.29       -39.1693       -17.0139
       1.30       -39.1708       -17.0138
       1.31       -39.1722       -17.0137
       1.32       -39.1737       -17.0137
       1.33       -39.1751       -17.0136
       1.34       -39.1766       -17.0135
       1.35       -39.1781       -17.0134
       1.36       -39.1796       -17.0134
       1.37       -39.1811       -17.0133
       1.38       -39.1826       -17.0132
       1.39       -39.1841       -17.0131
       1.40       -39.1857       -17.0130
       1.41       -39.1872       -17.0130
       1.42       -39.1887       -17.0129
       1.43       -39.1903       -17.0128
       1.44       -39.1919       -17.0127
       1.45       -39.1934       -17.0126
       1.46       -39.1950       -17.0125
       1.47       -39.1966       -17.0125
       1.48       -39.1982       -17.0124
       1.49       -39.1998       -17.0123
       1.50       -39.2014       -17.0122
       1.51       -39.2030       -17.0121
       1.52       -39.2046       -17.0120
       1.53       -39.2063       -17.0119
       1.54       -39.2079       -17.0118
       1.55       -39.2096       -17.0117
       1.56       -39.2112       -17.0116
       1.57       -39.2129       -17.0115
       1.58       -39.2145       -17.0114
       1.59       -39.2162       -17.0113
       1.60       -39.2179       -17.0112
       1.61       -39.2196       -17.0111
       1.62       -39.2213       -17.0110
       1.63       -39.2230       -17.0109
       1.64       -39.2247       -17.0108
       1.65       -39.2264       -17.0107
       1.66       -39.2281       -17.0106
       1.67       -39.2299       -17.0105
       1.68       -39.2316       -17.0104
       1.69       -39.2334       -17.0103
       1.70       -39.2351       -17.0101
       1.71       -39.2369       -17.0100
       1.72       -39.2386       -17.0099
       1.73       -39.2404       -17.0098
       1.74       -39.2422       -17.0097
       1.75       -39.2439       -17.0096
       1.76       -39.2457       -17.0094
       1.77       -39.2475       -17.0093
       1.78       -39.2493       -17.0092
       1.79       -39.2511       -17.0091
       1.80       -39.2529       -17.0089
       1.81       -39.2547       -17.0088
       1.82       -39.2565       -17.0087
       1.83       -39.2584       -17.0085
       1.84       -39.2602       -17.0084
       1.85       -39.2620       -17.0083
       1.86       -39.2638       -17.0081
       1.87       -39.2657       -17.0080
       1.88       -39.2675       -17.0078
       1.89       -39.2694       -17.0077
       1.90       -39.2712       -17.0076
       1.91       -39.2731       -17.0074
       1.92       -39.2749       -17.0073
       1.93       -39.2768       -17.0071
       1.94       -39.2786       -17.0070
       1.95       -39.2805       -17.0068
       1.96       -39.2823       -17.0067
       1.97       -39.2842       -17.0065
       1.98       -39.2861       -17.0063
       1.99       -39.2880       -17.0062
       2.00       -39.2899       -17.0060
       2.01       -39.2917       -17.0059
       2.02       -39.2936       -17.0057
       2.03       -39.2955       -17.0055
       2.04       -39.2974       -17.0054
       2.05       -39.2993       -17.0052
       2.06       -39.3012       -17.0050
       2.07       -39.3031       -17.0048
       2.08       -39.3049       -17.0047
       2.09       -39.3068       -17.0045
       2.10       -39.3087       -17.0043
       2.11       -39.3106       -17.0041
       2.12       -39.3125       -17.0039
       2.13       -39.3144       -17.0037
       2.14       -39.3163       -17.0035
       2.15       -39.3182       -17.0033
       2.16       -39.3201       -17.0032
       2.17       -39.3220       -17.0030
       2.18       -39.3239       -17.0028
       2.19       -39.3258       -17.0026
       2.20       -39.3277       -17.0023
       2.21       -39.3296       -17.0021
       2.22       -39.3315       -17.0019
       2.23       -39.3334       -17.0017
       2.24       -39.3353       -17.0015
       2.25       -39.3371       -17.0013
       2.26       -39.3390       -17.0011
       2.27       -39.3409       -17.0009
       2.28       -39.3428       -17.0006
       2.29       -39.3447       -17.0004
       2.30       -39.3465       -17.0002
       2.31       -39.3484       -16.9999
       2.32       -39.3503       -16.9997
       2.33       -39.3521       -16.9995
       2.34       -39.3540       -16.9992
       2.35       -39.3559       -16.9990
       2.36       -39.3577       -16.9987
       2.37       -39.3596       -16.9985
       2.38       -39.3614       -16.9982
       2.39       -39.3632       -16.9980
       2.40       -39.3651       -16.9977
       2.41       -39.3669       -16.9975
       2.42       -39.3687       -16.9972
       2.43       -39.3705       -16.9969
       2.44       -39.3724       -16.9967
       2.45       -39.3742       -16.9964
       2.46       -39.3759       -16.9961
       2.47       -39.3777       -16.9958
       2.48       -39.3795       -16.9955
       2.49       -39.3813       -16.9953
       2.50       -39.3831       -16.9950
       2.51       -39.3848       -16.9947
       2.52       -39.3866       -16.9944
       2.53       -39.3883       -16.9941
       2.54       -39.3901       -16.9938
       2.55       -39.3918       -16.9935
       2.56       -39.3935       -16.9932
       2.57       -39.3952       -16.9929
       2.58       -39.3969       -16.9925
       2.59       -39.3986       -16.9922
       2.60       -39.4003       -16.9919
       2.61       -39.4019       -16.9916
       2.62       -39.4036       -16.9912
       2.63       -39.4053       -16.9909
       2.64       -39.4069       -16.9905
       2.65       -39.4085       -16.9902
       2.66       -39.4101       -16.9899
       2.67       -39.4117       -16.9895
       2.68       -39.4133       -16.9892
       2.69       -39.4149       -16.9888
       2.70       -39.4164       -16.9884
       2.71       -39.4179       -16.9880
       2.72       -39.4195       -16.9877
       2.73       -39.4210       -16.9873
       2.74       -39.4225       -16.9869
       2.75       -39.4240       -16.9865
       2.76       -39.4254       -16.9861
       2.77       -39.4269       -16.9857
       2.78       -39.4283       -16.9853
       2.79       -39.4297       -16.9849
       2.80       -39.4311       -16.9845
       2.81       -39.4325       -16.9841
       2.82       -39.4339       -16.9837
       2.83       -39.4352       -16.9833
       2.84       -39.4365       -16.9828
       2.85       -39.4378       -16.9824
       2.86       -39.4391       -16.9820
       2.87       -39.4404       -16.9815
       2.88       -39.4416       -16.9811
       2.89       -39.4429       -16.9806
       2.90       -39.4441       -16.9801
       2.91       -39.4453       -16.9797
       2.92       -39.4464       -16.9792
       2.93       -39.4476       -16.9787
       2.94       -39.4487       -16.9782
       2.95       -39.4498       -16.9778
       2.96       -39.4508       -16.9773
       2.97       -39.4519       -16.9768
       2.98       -39.4529       -16.9763
       2.99       -39.4539       -16.9757
       3.00       -39.4548       -16.9752
       3.01       -39.4558       -16.9747
       3.02       -39.4567       -16.9742
       3.03       -39.4575       -16.9737
       3.04       -39.4584       -16.9731
       3.05       -39.4592       -16.9726
       3.06       -39.4600       -16.9720
       3.07       -39.4608       -16.9714
       3.08       -39.4615       -16.9709
       3.09       -39.4622       -16.9703
       3.10       -39.4629       -16.9697
       3.11       -39.4635       -16.9691
       3.12       -39.4642       -16.9685
       3.13       -39.4647       -16.9679
       3.14       -39.4653       -16.9673
       3.15       -39.4658       -16.9667
       3.16       -39.4663       -16.9661
       3.17       -39.4667       -16.9655
       3.18       -39.4671       -16.9648
       3.19       -39.4675       -16.9642
       3.20       -39.4678       -16.9635
       3.21       -39.4681       -16.9629
       3.22       -39.4683       -16.9622
       3.23       -39.4685       -16.9615
       3.24       -39.4687       -16.9608
       3.25       -39.4689       -16.9601
       3.26       -39.4689       -16.9594
       3.27       -39.4690       -16.9587
       3.28       -39.4690       -16.9580
       3.29       -39.4690       -16.9573
       3.30       -39.4689       -16.9566
       3.31       -39.4688       -16.9558
       3.32       -39.4686       -16.9551
       3.33       -39.4684       -16.9543
       3.34       -39.4681       -16.9536
       3.35       -39.4678       -16.9528
       3.36       -39.4674       -16.9520
       3.37       -39.4670       -16.9512
       3.38       -39.4666       -16.9504
       3.39       -39.4661       -16.9496
       3.40       -39.4655       -16.9488
       3.41       -39.4649       -16.9479
       3.42       -39.4643       -16.9471
       3.43       -39.4635       -16.9462
       3.44       -39.4628       -16.9454
       3.45       -39.4619       -16.9445
       3.46       -39.4611       -16.9436
       3.47       -39.4601       -16.9427
       3.48       -39.4591       -16.9418
       3.49       -39.4581       -16.9409
       3.50       -39.4569       -16.9400
       3.51       -39.4558       -16.9391
       3.52       -39.4545       -16.9381
       3.53       -39.4532       -16.9372
       3.54       -39.4519       -16.9362
       3.55       -39.4504       -16.9352
       3.56       -39.4489       -16.9342
       3.57       -39.4474       -16.9332
       3.58       -39.4457       -16.9322
       3.59       -39.4441       -16.9312
       3.60       -39.4423       -16.9302
       3.61       -39.4405       -16.9291
       3.62       -39.4385       -16.9280
       3.63       -39.4366       -16.9270
       3.64       -39.4345       -16.9259
       3.65       -39.4324       -16.9248
       3.66       -39.4302       -16.9237
       3.67       -39.4279       -16.9226
       3.68       -39.4256       -16.9214
       3.69       -39.4231       -16.9203
       3.70       -39.4206       -16.9191
       3.71       -39.4180       -16.9179
       3.72       -39.4154       -16.9168
       3.73       -39.4126       -16.9155
       3.74       -39.4098       -16.9143
       3.75       -39.4068       -16.9131
       3.76       -39.4038       -16.9119
       3.77       -39.4007       -16.9106
       3.78       -39.3975       -16.9093
       3.79       -39.3943       -16.9080
       3.80       -39.3909       -16.9067
       3.81       -39.3874       -16.9054
       3.82       -39.3839       -16.9041
       3.83       -39.3802       -16.9027
       3.84       -39.3765       -16.9014
       3.85       -39.3726       -16.9000
       3.86       -39.3687       -16.8986
       3.87       -39.3646       -16.8972
       3.88       -39.3605       -16.8957
       3.89       -39.3562       -16.8943
       3.90       -39.3519       -16.8928
       3.91       -39.3474       -16.8913
       3.92       -39.3428       -16.8899
       3.93       -39.3381       -16.8883
       3.94       -39.3334       -16.8868
       3.95       -39.3285       -16.8853
       3.96       -39.3235       -16.8837
       3.97       -39.3183       -16.8821
       3.98       -39.3131       -16.8805
       3.99       -39.3077       -16.8789
       4.00       -39.3022       -16.8772
       4.01       -39.2966       -16.8756
       4.02       -39.2909       -16.8739
       4.03       -39.2851       -16.8722
       4.04       -39.2791       -16.8705
       4.05       -39.2730       -16.8687
       4.06       -39.2668       -16.8670
       4.07       -39.2604       -16.8652
       4.08       -39.2539       -16.8634
       4.09       -39.2473       -16.8616
       4.10       -39.2405       -16.8598
       4.11       -39.2336       -16.8579
       4.12       -39.2266       -16.8560
       4.13       -39.2194       -16.8541
       4.14       -39.2121       -16.8522
       4.15       -39.2046       -16.8502
       4.16       -39.1970       -16.8483
       4.17       -39.1892       -16.8463
       4.18       -39.1813       -16.8443
       4.19       -39.1733       -16.8422
       4.20       -39.1651       -16.8402
       4.21       -39.1567       -16.8381
       4.22       -39.1482       -16.8360
       4.23       -39.1395       -16.8338
       4.24       -39.1306       -16.8317
       4.25       -39.1216       -16.8295
       4.26       -39.1124       -16.8273
       4.27       -39.1031       -16.8250
       4.28       -39.0936       -16.8228
       4.29       -39.0839       -16.8205
       4.30       -39.0740       -16.8182
       4.31       -39.0640       -16.8158
       4.32       -39.0538       -16.8135
       4.33       -39.0434       -16.8111
       4.34       -39.0328       -16.8087
       4.35       -39.0220       -16.8062
       4.36       -39.0111       -16.8038
       4.37       -39.0000       -16.8013
       4.38       -38.9886       -16.7987
       4.39       -38.9771       -16.7962
       4.40       -38.9654       -16.7936
       4.41       -38.9535       -16.7910
       4.42       -38.9414       -16.7883
       4.43       -38.9290       -16.7856
       4.44       -38.9165       -16.7829
       4.45       -38.9038       -16.7802
       4.46       -38.8908       -16.7774
       4.47       -38.8777       -16.7746
       4.48       -38.8643       -16.7718
       4.49       -38.8507       -16.7689
       4.50       -38.8369       -16.7660
       4.51       -38.8229       -16.7631
       4.52       -38.8086       -16.7601
       4.53       -38.7941       -16.7571
       4.54       -38.7794       -16.7541
       4.55       -38.7645       -16.7510
       4.56       -38.7493       -16.7479
       4.57       -38.7339       -16.7448
       4.58       -38.7182       -16.7416
       4.59       -38.7023       -16.7384
       4.60       -38.6861       -16.7351
       4.61       -38.6697       -16.7318
       4.62       -38.6531       -16.7285
       4.63       -38.6362       -16.7252
       4.64       -38.6190       -16.7218
       4.65       -38.6016       -16.7183
       4.66       -38.5839       -16.7149
       4.67       -38.5659       -16.7114
       4.68       -38.5477       -16.7078
       4.69       -38.5292       -16.7042
       4.70       -38.5104       -16.7006
       4.71       -38.4913       -16.6969
       4.72       -38.4720       -16.6932
